File: 循环伏安/analysis/114514/oxideLSV_str_air.txt
Nov. 2, 2023   13:10:47
Linear Sweep Voltammetry
File: c:\users\dell\desktop\电化学数据\114514\oxidelsv_str_air.txt
Data Source:  Experiment
Instrument Model:  CHI600B
Header:
Note:

Init E (V) = 1.25
Final E (V) = -0.3
Scan Rate (V/s) = 0.01
Sample Interval (V) = 0.001
Quiet Time (sec) = 2
Sensitivity (A/V) = 1e-5

Ep = 0.254V
ip = 2.020e-5A
Ah = 2.055e-4C

Ep = -0.120V
ip = 1.311e-5A
Ah = 1.247e-5C

Potential/V, Current/A, Charge/C

Segment 1:
1.249, -4.238e-6, -4.238e-7
1.243, -1.602e-6, -1.722e-6
1.237, -1.141e-6, -2.503e-6
1.231, -9.030e-7, -3.098e-6
1.225, -7.525e-7, -3.585e-6
1.219, -6.521e-7, -4.003e-6
1.213, -5.864e-7, -4.369e-6
1.207, -5.155e-7, -4.695e-6
1.201, -4.648e-7, -4.989e-6
1.195, -4.346e-7, -5.258e-6
1.189, -4.037e-7, -5.504e-6
1.183, -3.753e-7, -5.738e-6
1.177, -3.542e-7, -5.954e-6
1.171, -3.072e-7, -6.153e-6
1.165, -2.231e-7, -6.306e-6
1.159, -2.063e-7, -6.432e-6
1.153, -1.926e-7, -6.552e-6
1.147, -1.762e-7, -6.661e-6
1.141, -1.641e-7, -6.762e-6
1.135, -1.600e-7, -6.859e-6
1.129, -1.563e-7, -6.954e-6
1.123, -1.476e-7, -7.045e-6
1.117, -1.374e-7, -7.129e-6
1.111, -1.243e-7, -7.207e-6
1.105, -1.172e-7, -7.279e-6
1.099, -1.135e-7, -7.347e-6
1.093, -1.108e-7, -7.415e-6
1.087, -1.084e-7, -7.481e-6
1.081, -1.059e-7, -7.545e-6
1.075, -9.911e-8, -7.606e-6
1.069, -9.360e-8, -7.665e-6
1.063, -8.817e-8, -7.720e-6
1.057, -8.014e-8, -7.771e-6
1.051, -7.598e-8, -7.818e-6
1.045, -7.149e-8, -7.862e-6
1.039, -6.793e-8, -7.904e-6
1.033, -6.544e-8, -7.944e-6
1.027, -6.339e-8, -7.982e-6
1.021, -6.254e-8, -8.020e-6
1.015, -6.209e-8, -8.058e-6
1.009, -6.041e-8, -8.094e-6
1.003, -5.922e-8, -8.130e-6
0.997, -5.717e-8, -8.165e-6
0.991, -5.334e-8, -8.197e-6
0.985, -4.920e-8, -8.228e-6
0.979, -4.451e-8, -8.256e-6
0.973, -4.145e-8, -8.281e-6
0.967, -3.620e-8, -8.304e-6
0.961, -3.210e-8, -8.324e-6
0.955, -2.657e-8, -8.342e-6
0.949, -2.472e-8, -8.357e-6
0.943, -2.075e-8, -8.370e-6
0.937, -1.854e-8, -8.382e-6
0.931, -1.628e-8, -8.392e-6
0.925, -1.529e-8, -8.402e-6
0.919, -1.407e-8, -8.410e-6
0.913, -1.298e-8, -8.418e-6
0.907, -1.162e-8, -8.426e-6
0.901, -1.035e-8, -8.432e-6
0.895, -8.479e-9, -8.438e-6
0.889, -6.266e-9, -8.442e-6
0.883, -3.935e-9, -8.445e-6
0.877, 5.025e-10, -8.445e-6
0.871, 3.263e-9, -8.444e-6
0.865, 6.869e-9, -8.441e-6
0.859, 9.365e-9, -8.435e-6
0.853, 1.396e-8, -8.428e-6
0.847, 1.696e-8, -8.418e-6
0.841, 2.117e-8, -8.406e-6
0.835, 2.405e-8, -8.393e-6
0.829, 2.652e-8, -8.377e-6
0.823, 2.954e-8, -8.360e-6
0.817, 3.005e-8, -8.343e-6
0.811, 3.214e-8, -8.323e-6
0.805, 3.308e-8, -8.304e-6
0.799, 3.447e-8, -8.283e-6
0.793, 3.449e-8, -8.263e-6
0.787, 3.554e-8, -8.242e-6
0.781, 3.608e-8, -8.220e-6
0.775, 3.737e-8, -8.198e-6
0.769, 3.848e-8, -8.175e-6
0.763, 4.129e-8, -8.151e-6
0.757, 4.338e-8, -8.126e-6
0.751, 4.752e-8, -8.098e-6
0.745, 5.119e-8, -8.068e-6
0.739, 5.518e-8, -8.036e-6
0.733, 6.078e-8, -8.001e-6
0.727, 6.439e-8, -7.963e-6
0.721, 6.982e-8, -7.923e-6
0.715, 7.258e-8, -7.879e-6
0.709, 7.786e-8, -7.834e-6
0.703, 7.983e-8, -7.786e-6
0.697, 8.349e-8, -7.737e-6
0.691, 8.404e-8, -7.687e-6
0.685, 8.800e-8, -7.635e-6
0.679, 8.931e-8, -7.582e-6
0.673, 9.484e-8, -7.527e-6
0.667, 9.653e-8, -7.470e-6
0.661, 1.046e-7, -7.409e-6
0.655, 1.105e-7, -7.345e-6
0.649, 1.156e-7, -7.277e-6
0.643, 1.211e-7, -7.206e-6
0.637, 1.262e-7, -7.132e-6
0.631, 1.295e-7, -7.055e-6
0.625, 1.326e-7, -6.976e-6
0.619, 1.354e-7, -6.896e-6
0.613, 1.405e-7, -6.813e-6
0.607, 1.492e-7, -6.726e-6
0.601, 1.565e-7, -6.634e-6
0.595, 1.672e-7, -6.536e-6
0.589, 1.741e-7, -6.433e-6
0.583, 1.808e-7, -6.326e-6
0.577, 1.857e-7, -6.216e-6
0.571, 1.949e-7, -6.101e-6
0.565, 2.094e-7, -5.979e-6
0.559, 2.209e-7, -5.850e-6
0.553, 2.298e-7, -5.713e-6
0.547, 2.368e-7, -5.573e-6
0.541, 2.551e-7, -5.425e-6
0.535, 2.716e-7, -5.267e-6
0.529, 2.862e-7, -5.099e-6
0.523, 3.074e-7, -4.921e-6
0.517, 3.274e-7, -4.729e-6
0.511, 3.526e-7, -4.525e-6
0.505, 3.802e-7, -4.303e-6
0.499, 4.213e-7, -4.061e-6
0.493, 4.572e-7, -3.798e-6
0.487, 5.114e-7, -3.506e-6
0.481, 5.684e-7, -3.182e-6
0.475, 6.399e-7, -2.816e-6
0.469, 7.350e-7, -2.399e-6
0.463, 8.597e-7, -1.916e-6
0.457, 1.008e-6, -1.350e-6
0.451, 1.209e-6, -6.803e-7
0.445, 1.450e-6, 1.282e-7
0.439, 1.762e-6, 1.104e-6
0.433, 2.135e-6, 2.290e-6
0.427, 2.605e-6, 3.734e-6
0.421, 3.187e-6, 5.498e-6
0.415, 3.864e-6, 7.643e-6
0.409, 4.683e-6, 1.025e-5
0.403, 5.541e-6, 1.336e-5
0.397, 6.480e-6, 1.699e-5
0.391, 7.377e-6, 2.119e-5
0.385, 8.901e-6, 2.614e-5
0.379, 9.545e-6, 3.159e-5
0.373, 9.798e-6, 3.740e-5
0.367, 1.172e-5, 4.391e-5
0.361, 1.212e-5, 5.169e-5
0.355, 1.181e-5, 5.891e-5
0.349, 1.229e-5, 6.664e-5
0.343, 1.494e-5, 7.493e-5
0.337, 1.485e-5, 8.335e-5
0.331, 1.367e-5, 9.187e-5
0.325, 1.525e-5, 1.015e-4
0.319, 1.488e-5, 1.105e-4
0.313, 1.538e-5, 1.208e-4
0.307, 2.037e-5, 1.313e-4
0.301, 1.744e-5, 1.418e-4
0.295, 1.296e-5, 1.505e-4
0.289, 1.550e-5, 1.594e-4
0.283, 1.550e-5, 1.688e-4
0.277, 1.384e-5, 1.776e-4
0.271, 1.678e-5, 1.876e-4
0.265, 1.499e-5, 1.966e-4
0.259, 1.485e-5, 2.064e-4
0.253, 1.827e-5, 2.164e-4
0.247, 1.543e-5, 2.257e-4
0.241, 1.519e-5, 2.350e-4
0.235, 1.317e-5, 2.432e-4
0.229, 1.822e-5, 2.525e-4
0.223, 1.533e-5, 2.615e-4
0.217, 1.533e-5, 2.711e-4
0.211, 1.568e-5, 2.804e-4
0.205, 1.449e-5, 2.894e-4
0.199, 1.564e-5, 2.993e-4
0.193, 1.990e-5, 3.116e-4
0.187, 1.520e-5, 3.218e-4
0.181, 1.652e-5, 3.308e-4
0.175, 1.766e-5, 3.409e-4
0.169, 1.477e-5, 3.506e-4
0.163, 1.785e-5, 3.612e-4
0.157, 1.631e-5, 3.714e-4
0.151, 1.676e-5, 3.806e-4
0.145, 2.142e-5, 3.941e-4
0.139, 1.749e-5, 4.041e-4
0.133, 1.466e-5, 4.131e-4
0.127, 1.893e-5, 4.226e-4
0.121, 1.755e-5, 4.341e-4
0.115, 1.794e-5, 4.456e-4
0.109, 1.449e-5, 4.563e-4
0.103, 1.483e-5, 4.655e-4
0.097, 1.648e-5, 4.749e-4
0.091, 1.390e-5, 4.836e-4
0.085, 1.702e-5, 4.930e-4
0.079, 1.908e-5, 5.030e-4
0.073, 1.783e-5, 5.136e-4
0.067, 1.640e-5, 5.231e-4
0.061, 1.701e-5, 5.337e-4
0.055, 1.510e-5, 5.430e-4
0.049, 1.591e-5, 5.531e-4
0.043, 1.601e-5, 5.625e-4
0.037, 1.555e-5, 5.730e-4
0.031, 1.634e-5, 5.825e-4
0.025, 1.569e-5, 5.913e-4
0.019, 1.617e-5, 6.021e-4
0.013, 1.798e-5, 6.129e-4
0.007, 1.654e-5, 6.223e-4
0.001, 1.499e-5, 6.313e-4
-0.005, 2.013e-5, 6.421e-4
-0.011, 1.444e-5, 6.520e-4
-0.017, 1.737e-5, 6.621e-4
-0.023, 1.921e-5, 6.723e-4
-0.029, 1.569e-5, 6.822e-4
-0.035, 1.559e-5, 6.922e-4
-0.041, 1.900e-5, 7.021e-4
-0.047, 1.749e-5, 7.140e-4
-0.053, 2.039e-5, 7.243e-4
-0.059, 1.979e-5, 7.366e-4
-0.065, 1.967e-5, 7.471e-4
-0.071, 1.782e-5, 7.592e-4
-0.077, 1.806e-5, 7.698e-4
-0.083, 1.604e-5, 7.802e-4
-0.089, 1.778e-5, 7.907e-4
-0.095, 1.873e-5, 8.019e-4
-0.101, 1.819e-5, 8.129e-4
-0.107, 1.870e-5, 8.253e-4
-0.113, 2.490e-5, 8.371e-4
-0.119, 2.795e-5, 8.509e-4
-0.125, 2.622e-5, 8.655e-4
-0.131, 2.361e-5, 8.794e-4
-0.137, 2.052e-5, 8.939e-4
-0.143, 2.531e-5, 9.087e-4
-0.149, 1.954e-5, 9.226e-4
-0.155, 1.859e-5, 9.340e-4
-0.161, 1.878e-5, 9.456e-4
-0.167, 1.839e-5, 9.561e-4
-0.173, 2.052e-5, 9.682e-4
-0.179, 2.068e-5, 9.804e-4
-0.185, 1.887e-5, 9.925e-4
-0.191, 2.328e-5, 1.005e-3
-0.197, 1.802e-5, 1.018e-3
-0.203, 2.259e-5, 1.031e-3
-0.209, 2.278e-5, 1.043e-3
-0.215, 1.764e-5, 1.054e-3
-0.221, 1.963e-5, 1.066e-3
-0.227, 2.009e-5, 1.079e-3
-0.233, 2.108e-5, 1.090e-3
-0.239, 2.279e-5, 1.103e-3
-0.245, 1.980e-5, 1.115e-3
-0.251, 2.040e-5, 1.127e-3
-0.257, 1.710e-5, 1.139e-3
-0.263, 1.864e-5, 1.150e-3
-0.269, 2.138e-5, 1.162e-3
-0.275, 1.985e-5, 1.173e-3
-0.281, 1.693e-5, 1.184e-3
-0.287, 1.631e-5, 1.195e-3
-0.293, 1.822e-5, 1.206e-3
-0.299, 1.619e-5, 1.216e-3