File: 循环伏安/analysis/114514/oxideLSV_air.txt
Nov. 2, 2023   13:15:40
Linear Sweep Voltammetry
File: c:\users\dell\desktop\电化学数据\114514\oxidelsv_air.txt
Data Source:  Experiment
Instrument Model:  CHI600B
Header:
Note:

Init E (V) = 1.25
Final E (V) = -0.3
Scan Rate (V/s) = 0.01
Sample Interval (V) = 0.001
Quiet Time (sec) = 2
Sensitivity (A/V) = 1e-5

Potential/V, Current/A, Charge/C

Segment 1:
1.249, -4.965e-6, -4.965e-7
1.243, -1.729e-6, -1.932e-6
1.237, -1.202e-6, -2.762e-6
1.231, -9.482e-7, -3.388e-6
1.225, -7.948e-7, -3.900e-6
1.219, -6.929e-7, -4.338e-6
1.213, -6.004e-7, -4.720e-6
1.207, -5.500e-7, -5.063e-6
1.201, -5.003e-7, -5.372e-6
1.195, -4.533e-7, -5.653e-6
1.189, -4.130e-7, -5.915e-6
1.183, -4.028e-7, -6.158e-6
1.177, -3.664e-7, -6.390e-6
1.171, -3.546e-7, -6.604e-6
1.165, -3.104e-7, -6.806e-6
1.159, -2.207e-7, -6.958e-6
1.153, -2.082e-7, -7.085e-6
1.147, -2.013e-7, -7.208e-6
1.141, -1.860e-7, -7.324e-6
1.135, -1.668e-7, -7.429e-6
1.129, -1.607e-7, -7.526e-6
1.123, -1.599e-7, -7.622e-6
1.117, -1.579e-7, -7.718e-6
1.111, -1.502e-7, -7.810e-6
1.105, -1.392e-7, -7.897e-6
1.099, -1.247e-7, -7.975e-6
1.093, -1.153e-7, -8.046e-6
1.087, -1.122e-7, -8.114e-6
1.081, -1.113e-7, -8.181e-6
1.075, -1.109e-7, -8.248e-6
1.069, -1.096e-7, -8.314e-6
1.063, -1.067e-7, -8.379e-6
1.057, -1.021e-7, -8.441e-6
1.051, -9.642e-8, -8.500e-6
1.045, -8.914e-8, -8.555e-6
1.039, -8.254e-8, -8.605e-6
1.033, -7.382e-8, -8.651e-6
1.027, -6.890e-8, -8.693e-6
1.021, -6.564e-8, -8.733e-6
1.015, -6.440e-8, -8.772e-6
1.009, -6.327e-8, -8.810e-6
1.003, -6.268e-8, -8.847e-6
0.997, -6.239e-8, -8.885e-6
0.991, -6.202e-8, -8.922e-6
0.985, -6.129e-8, -8.959e-6
0.979, -5.990e-8, -8.996e-6
0.973, -5.704e-8, -9.031e-6
0.967, -5.368e-8, -9.064e-6
0.961, -5.019e-8, -9.095e-6
0.955, -4.446e-8, -9.123e-6
0.949, -3.785e-8, -9.148e-6
0.943, -3.155e-8, -9.169e-6
0.937, -2.457e-8, -9.185e-6
0.931, -2.111e-8, -9.199e-6
0.925, -1.796e-8, -9.210e-6
0.919, -1.609e-8, -9.220e-6
0.913, -1.477e-8, -9.230e-6
0.907, -1.410e-8, -9.238e-6
0.901, -1.379e-8, -9.247e-6
0.895, -1.333e-8, -9.255e-6
0.889, -1.292e-8, -9.263e-6
0.883, -1.210e-8, -9.270e-6
0.877, -1.093e-8, -9.277e-6
0.871, -9.258e-9, -9.283e-6
0.865, -6.227e-9, -9.288e-6
0.859, -3.394e-9, -9.291e-6
0.853, 1.189e-9, -9.292e-6
0.847, 5.997e-9, -9.290e-6
0.841, 1.145e-8, -9.285e-6
0.835, 1.698e-8, -9.277e-6
0.829, 2.214e-8, -9.265e-6
0.823, 2.624e-8, -9.251e-6
0.817, 2.916e-8, -9.234e-6
0.811, 3.184e-8, -9.216e-6
0.805, 3.336e-8, -9.196e-6
0.799, 3.425e-8, -9.176e-6
0.793, 3.466e-8, -9.155e-6
0.787, 3.501e-8, -9.134e-6
0.781, 3.514e-8, -9.113e-6
0.775, 3.527e-8, -9.092e-6
0.769, 3.539e-8, -9.071e-6
0.763, 3.565e-8, -9.049e-6
0.757, 3.620e-8, -9.028e-6
0.751, 3.752e-8, -9.006e-6
0.745, 3.982e-8, -8.983e-6
0.739, 4.346e-8, -8.958e-6
0.733, 4.880e-8, -8.930e-6
0.727, 5.588e-8, -8.898e-6
0.721, 6.497e-8, -8.861e-6
0.715, 7.188e-8, -8.820e-6
0.709, 7.742e-8, -8.775e-6
0.703, 8.098e-8, -8.727e-6
0.697, 8.281e-8, -8.678e-6
0.691, 8.359e-8, -8.628e-6
0.685, 8.409e-8, -8.578e-6
0.679, 8.462e-8, -8.527e-6
0.673, 8.579e-8, -8.476e-6
0.667, 8.806e-8, -8.424e-6
0.661, 9.280e-8, -8.369e-6
0.655, 9.937e-8, -8.310e-6
0.649, 1.085e-7, -8.247e-6
0.643, 1.174e-7, -8.178e-6
0.637, 1.249e-7, -8.105e-6
0.631, 1.300e-7, -8.028e-6
0.625, 1.322e-7, -7.949e-6
0.619, 1.329e-7, -7.869e-6
0.613, 1.338e-7, -7.789e-6
0.607, 1.374e-7, -7.708e-6
0.601, 1.474e-7, -7.623e-6
0.595, 1.632e-7, -7.529e-6
0.589, 1.758e-7, -7.426e-6
0.583, 1.809e-7, -7.319e-6
0.577, 1.819e-7, -7.210e-6
0.571, 1.847e-7, -7.100e-6
0.565, 1.982e-7, -6.985e-6
0.559, 2.207e-7, -6.858e-6
0.553, 2.298e-7, -6.721e-6
0.547, 2.309e-7, -6.583e-6
0.541, 2.400e-7, -6.443e-6
0.535, 2.705e-7, -6.288e-6
0.529, 2.795e-7, -6.122e-6
0.523, 2.916e-7, -5.951e-6
0.517, 3.246e-7, -5.763e-6
0.511, 3.329e-7, -5.566e-6
0.505, 3.760e-7, -5.350e-6
0.499, 4.035e-7, -5.119e-6
0.493, 4.294e-7, -4.864e-6
0.487, 4.785e-7, -4.585e-6
0.481, 5.300e-7, -4.277e-6
0.475, 6.140e-7, -3.930e-6
0.469, 6.812e-7, -3.540e-6
0.463, 7.886e-7, -3.093e-6
0.457, 9.140e-7, -2.577e-6
0.451, 1.070e-6, -1.974e-6
0.445, 1.294e-6, -1.257e-6
0.439, 1.538e-6, -3.987e-7
0.433, 1.829e-6, 6.225e-7
0.427, 2.197e-6, 1.845e-6
0.421, 2.649e-6, 3.317e-6
0.415, 3.193e-6, 5.093e-6
0.409, 3.813e-6, 7.222e-6
0.403, 4.557e-6, 9.761e-6
0.397, 5.312e-6, 1.276e-5
0.391, 6.356e-6, 1.630e-5
0.385, 7.326e-6, 2.045e-5
0.379, 8.206e-6, 2.518e-5
0.373, 8.758e-6, 3.024e-5
0.367, 1.019e-5, 3.597e-5
0.361, 1.060e-5, 4.231e-5
0.355, 1.108e-5, 4.870e-5
0.349, 1.258e-5, 5.595e-5
0.343, 1.240e-5, 6.350e-5
0.337, 1.402e-5, 7.135e-5
0.331, 1.497e-5, 8.027e-5
0.325, 1.483e-5, 8.885e-5
0.319, 1.422e-5, 9.799e-5
0.313, 1.530e-5, 1.069e-4
0.307, 1.451e-5, 1.161e-4
0.301, 1.596e-5, 1.253e-4
0.295, 1.580e-5, 1.342e-4
0.289, 1.527e-5, 1.443e-4
0.283, 1.653e-5, 1.542e-4
0.277, 1.697e-5, 1.641e-4
0.271, 1.798e-5, 1.743e-4
0.265, 1.836e-5, 1.850e-4
0.259, 1.551e-5, 1.948e-4
0.253, 1.417e-5, 2.034e-4
0.247, 1.946e-5, 2.135e-4
0.241, 2.037e-5, 2.263e-4
0.235, 1.846e-5, 2.371e-4
0.229, 1.696e-5, 2.478e-4
0.223, 1.687e-5, 2.580e-4
0.217, 1.827e-5, 2.688e-4
0.211, 1.889e-5, 2.798e-4
0.205, 1.647e-5, 2.902e-4
0.199, 1.754e-5, 3.001e-4
0.193, 2.012e-5, 3.128e-4
0.187, 1.872e-5, 3.236e-4
0.181, 1.877e-5, 3.354e-4
0.175, 2.027e-5, 3.474e-4
0.169, 1.596e-5, 3.586e-4
0.163, 1.986e-5, 3.690e-4
0.157, 2.150e-5, 3.812e-4
0.151, 1.891e-5, 3.935e-4
0.145, 1.900e-5, 4.048e-4
0.139, 1.635e-5, 4.146e-4
0.133, 1.962e-5, 4.259e-4
0.127, 1.526e-5, 4.365e-4
0.121, 1.886e-5, 4.471e-4
0.115, 1.562e-5, 4.569e-4
0.109, 1.814e-5, 4.672e-4
0.103, 1.888e-5, 4.781e-4
0.097, 1.826e-5, 4.900e-4
0.091, 1.674e-5, 5.006e-4
0.085, 2.230e-5, 5.129e-4
0.079, 1.928e-5, 5.238e-4
0.073, 1.972e-5, 5.355e-4
0.067, 1.573e-5, 5.459e-4
0.061, 1.730e-5, 5.576e-4
0.055, 1.427e-5, 5.667e-4
0.049, 1.531e-5, 5.761e-4
0.043, 2.064e-5, 5.872e-4
0.037, 1.923e-5, 5.987e-4
0.031, 2.091e-5, 6.110e-4
0.025, 1.712e-5, 6.233e-4
0.019, 2.073e-5, 6.334e-4
0.013, 1.861e-5, 6.455e-4
0.007, 2.163e-5, 6.569e-4
0.001, 1.845e-5, 6.696e-4
-0.005, 1.772e-5, 6.818e-4
-0.011, 1.995e-5, 6.937e-4
-0.017, 1.930e-5, 7.062e-4
-0.023, 1.626e-5, 7.163e-4
-0.029, 1.788e-5, 7.278e-4
-0.035, 1.857e-5, 7.388e-4
-0.041, 1.874e-5, 7.505e-4
-0.047, 2.324e-5, 7.637e-4
-0.053, 2.319e-5, 7.783e-4
-0.059, 2.085e-5, 7.912e-4
-0.065, 1.837e-5, 8.032e-4
-0.071, 2.201e-5, 8.161e-4
-0.077, 2.469e-5, 8.304e-4
-0.083, 1.802e-5, 8.425e-4
-0.089, 2.296e-5, 8.534e-4
-0.095, 2.074e-5, 8.664e-4
-0.101, 1.633e-5, 8.768e-4
-0.107, 2.261e-5, 8.895e-4
-0.113, 2.173e-5, 9.026e-4
-0.119, 1.951e-5, 9.153e-4
-0.125, 1.747e-5, 9.272e-4
-0.131, 2.144e-5, 9.410e-4
-0.137, 1.787e-5, 9.523e-4
-0.143, 2.279e-5, 9.637e-4
-0.149, 1.593e-5, 9.753e-4
-0.155, 2.082e-5, 9.878e-4
-0.161, 1.969e-5, 1.001e-3
-0.167, 2.196e-5, 1.012e-3
-0.173, 2.215e-5, 1.025e-3
-0.179, 1.978e-5, 1.038e-3
-0.185, 1.931e-5, 1.049e-3
-0.191, 2.110e-5, 1.061e-3
-0.197, 1.597e-5, 1.072e-3
-0.203, 1.703e-5, 1.082e-3
-0.209, 2.221e-5, 1.094e-3
-0.215, 2.063e-5, 1.108e-3
-0.221, 2.531e-5, 1.121e-3
-0.227, 1.880e-5, 1.134e-3
-0.233, 2.024e-5, 1.147e-3
-0.239, 1.859e-5, 1.159e-3
-0.245, 2.048e-5, 1.171e-3
-0.251, 1.979e-5, 1.184e-3
-0.257, 1.889e-5, 1.194e-3
-0.263, 2.009e-5, 1.207e-3
-0.269, 1.814e-5, 1.219e-3
-0.275, 1.567e-5, 1.229e-3
-0.281, 1.894e-5, 1.240e-3
-0.287, 2.123e-5, 1.252e-3
-0.293, 2.198e-5, 1.264e-3
-0.299, 2.142e-5, 1.277e-3