File: 循环伏安/analysis/114514/oxide_air.txt
Nov. 2, 2023   12:59:10
Cyclic Voltammetry
File: c:\users\dell\desktop\电化学数据\114514\oxide_air.txt
Data Source:  Experiment
Instrument Model:  CHI600B
Header:
Note:

Init E (V) = -0.25
High E (V) = 1.25
Low E (V) = -0.3
Init P/N = P
Scan Rate (V/s) = 0.1
Segment = 8
Sample Interval (V) = 0.01
Quiet Time (sec) = 1
Sensitivity (A/V) = 1e-5

Segment 1:
Segment 2:
Ep = -0.060V
ip = 6.650e-6A
Ah = 2.280e-6C

Segment 3:
Segment 4:
Ep = 0.290V
ip = 1.842e-5A
Ah = 2.483e-5C

Segment 5:
Segment 6:
Ep = 0.340V
ip = 1.729e-5A
Ah = 1.600e-5C

Segment 7:
Segment 8:
Ep = 0.350V
ip = 1.872e-5A
Ah = 1.468e-5C

Ep = -0.180V
ip = 6.035e-6A
Ah = 1.662e-6C

Potential/V, Current/A, Charge/C

Segment 1:
-0.240, 2.316e-5, 2.316e-6
-0.230, 2.165e-5, 4.482e-6
-0.220, 2.534e-5, 7.016e-6
-0.210, 2.440e-5, 9.456e-6
-0.200, 2.255e-5, 1.171e-5
-0.190, 2.204e-5, 1.391e-5
-0.180, 2.212e-5, 1.613e-5
-0.170, 2.042e-5, 1.817e-5
-0.160, 1.991e-5, 2.016e-5
-0.150, 1.990e-5, 2.215e-5
-0.140, 2.100e-5, 2.425e-5
-0.130, 2.152e-5, 2.640e-5
-0.120, 2.187e-5, 2.859e-5
-0.110, 2.173e-5, 3.076e-5
-0.100, 2.262e-5, 3.302e-5
-0.090, 2.179e-5, 3.520e-5
-0.080, 2.116e-5, 3.732e-5
-0.070, 2.225e-5, 3.954e-5
-0.060, 2.426e-5, 4.197e-5
-0.050, 2.480e-5, 4.445e-5
-0.040, 2.407e-5, 4.686e-5
-0.030, 2.479e-5, 4.934e-5
-0.020, 2.544e-5, 5.188e-5
-0.010, 2.504e-5, 5.438e-5
0.000, 2.554e-5, 5.694e-5
0.010, 2.599e-5, 5.954e-5
0.020, 2.698e-5, 6.223e-5
0.030, 2.844e-5, 6.508e-5
0.040, 2.581e-5, 6.766e-5
0.050, 2.395e-5, 7.005e-5
0.060, 2.428e-5, 7.248e-5
0.070, 2.549e-5, 7.503e-5
0.080, 2.575e-5, 7.761e-5
0.090, 2.645e-5, 8.025e-5
0.100, 2.537e-5, 8.279e-5
0.110, 2.395e-5, 8.518e-5
0.120, 2.383e-5, 8.757e-5
0.130, 2.475e-5, 9.004e-5
0.140, 2.336e-5, 9.238e-5
0.150, 2.047e-5, 9.443e-5
0.160, 1.934e-5, 9.636e-5
0.170, 1.899e-5, 9.826e-5
0.180, 2.071e-5, 1.003e-4
0.190, 2.198e-5, 1.025e-4
0.200, 2.291e-5, 1.048e-4
0.210, 2.388e-5, 1.072e-4
0.220, 2.209e-5, 1.094e-4
0.230, 2.150e-5, 1.116e-4
0.240, 2.364e-5, 1.139e-4
0.250, 2.568e-5, 1.165e-4
0.260, 2.536e-5, 1.190e-4
0.270, 2.535e-5, 1.216e-4
0.280, 2.210e-5, 1.238e-4
0.290, 1.993e-5, 1.258e-4
0.300, 1.945e-5, 1.277e-4
0.310, 2.043e-5, 1.298e-4
0.320, 2.120e-5, 1.319e-4
0.330, 2.023e-5, 1.339e-4
0.340, 1.922e-5, 1.358e-4
0.350, 1.865e-5, 1.377e-4
0.360, 1.914e-5, 1.396e-4
0.370, 1.797e-5, 1.414e-4
0.380, 1.626e-5, 1.430e-4
0.390, 1.484e-5, 1.445e-4
0.400, 1.358e-5, 1.459e-4
0.410, 1.279e-5, 1.471e-4
0.420, 1.217e-5, 1.484e-4
0.430, 1.215e-5, 1.496e-4
0.440, 1.261e-5, 1.508e-4
0.450, 1.249e-5, 1.521e-4
0.460, 1.169e-5, 1.533e-4
0.470, 1.030e-5, 1.543e-4
0.480, 9.318e-6, 1.552e-4
0.490, 8.350e-6, 1.561e-4
0.500, 7.174e-6, 1.568e-4
0.510, 5.958e-6, 1.574e-4
0.520, 4.943e-6, 1.579e-4
0.530, 3.943e-6, 1.583e-4
0.540, 2.979e-6, 1.586e-4
0.550, 2.121e-6, 1.588e-4
0.560, 1.380e-6, 1.589e-4
0.570, 7.305e-7, 1.590e-4
0.580, 1.651e-7, 1.590e-4
0.590, -3.738e-7, 1.590e-4
0.600, -7.834e-7, 1.589e-4
0.610, -1.086e-6, 1.588e-4
0.620, -1.326e-6, 1.586e-4
0.630, -1.519e-6, 1.585e-4
0.640, -1.664e-6, 1.583e-4
0.650, -1.785e-6, 1.581e-4
0.660, -1.875e-6, 1.580e-4
0.670, -1.960e-6, 1.578e-4
0.680, -2.015e-6, 1.576e-4
0.690, -2.052e-6, 1.573e-4
0.700, -2.093e-6, 1.571e-4
0.710, -2.127e-6, 1.569e-4
0.720, -2.157e-6, 1.567e-4
0.730, -2.180e-6, 1.565e-4
0.740, -2.205e-6, 1.563e-4
0.750, -2.221e-6, 1.561e-4
0.760, -2.248e-6, 1.558e-4
0.770, -2.274e-6, 1.556e-4
0.780, -2.304e-6, 1.554e-4
0.790, -2.326e-6, 1.551e-4
0.800, -2.356e-6, 1.549e-4
0.810, -2.387e-6, 1.547e-4
0.820, -2.417e-6, 1.544e-4
0.830, -2.456e-6, 1.542e-4
0.840, -2.496e-6, 1.539e-4
0.850, -2.535e-6, 1.537e-4
0.860, -2.572e-6, 1.534e-4
0.870, -2.612e-6, 1.532e-4
0.880, -2.658e-6, 1.529e-4
0.890, -2.703e-6, 1.526e-4
0.900, -2.746e-6, 1.523e-4
0.910, -2.790e-6, 1.521e-4
0.920, -2.832e-6, 1.518e-4
0.930, -2.876e-6, 1.515e-4
0.940, -2.917e-6, 1.512e-4
0.950, -2.950e-6, 1.509e-4
0.960, -2.991e-6, 1.506e-4
0.970, -3.030e-6, 1.503e-4
0.980, -3.063e-6, 1.500e-4
0.990, -3.097e-6, 1.497e-4
1.000, -3.133e-6, 1.494e-4
1.010, -3.159e-6, 1.491e-4
1.020, -3.192e-6, 1.487e-4
1.030, -3.223e-6, 1.484e-4
1.040, -3.240e-6, 1.481e-4
1.050, -3.268e-6, 1.478e-4
1.060, -3.288e-6, 1.474e-4
1.070, -3.316e-6, 1.471e-4
1.080, -3.334e-6, 1.468e-4
1.090, -3.355e-6, 1.464e-4
1.100, -3.379e-6, 1.461e-4
1.110, -3.395e-6, 1.458e-4
1.120, -3.427e-6, 1.454e-4
1.130, -3.453e-6, 1.451e-4
1.140, -3.488e-6, 1.447e-4
1.150, -3.529e-6, 1.444e-4
1.160, -3.573e-6, 1.440e-4
1.170, -3.626e-6, 1.437e-4
1.180, -3.693e-6, 1.433e-4
1.190, -3.766e-6, 1.429e-4
1.200, -3.858e-6, 1.425e-4
1.210, -3.968e-6, 1.421e-4
1.220, -4.103e-6, 1.417e-4
1.230, -4.260e-6, 1.413e-4
1.240, -4.458e-6, 1.408e-4

Segment 2:
1.250, -3.865e-6, 1.405e-4
1.240, -2.765e-6, 1.402e-4
1.230, -2.097e-6, 1.400e-4
1.220, -1.635e-6, 1.398e-4
1.210, -1.324e-6, 1.397e-4
1.200, -1.092e-6, 1.396e-4
1.190, -9.189e-7, 1.395e-4
1.180, -7.855e-7, 1.394e-4
1.170, -6.788e-7, 1.393e-4
1.160, -5.984e-7, 1.393e-4
1.150, -5.316e-7, 1.392e-4
1.140, -4.750e-7, 1.392e-4
1.130, -4.276e-7, 1.391e-4
1.120, -3.942e-7, 1.391e-4
1.110, -3.546e-7, 1.390e-4
1.100, -2.666e-7, 1.390e-4
1.090, -2.049e-7, 1.390e-4
1.080, -1.753e-7, 1.390e-4
1.070, -1.585e-7, 1.390e-4
1.060, -1.363e-7, 1.390e-4
1.050, -1.144e-7, 1.389e-4
1.040, -1.007e-7, 1.389e-4
1.030, -7.552e-8, 1.389e-4
1.020, -6.422e-8, 1.389e-4
1.010, -5.483e-8, 1.389e-4
1.000, -3.295e-8, 1.389e-4
0.990, -1.547e-8, 1.389e-4
0.980, -6.676e-9, 1.389e-4
0.970, 1.251e-8, 1.389e-4
0.960, 3.179e-8, 1.389e-4
0.950, 3.585e-8, 1.389e-4
0.940, 4.664e-8, 1.389e-4
0.930, 6.818e-8, 1.389e-4
0.920, 8.278e-8, 1.389e-4
0.910, 9.002e-8, 1.389e-4
0.900, 1.066e-7, 1.390e-4
0.890, 1.282e-7, 1.390e-4
0.880, 1.345e-7, 1.390e-4
0.870, 1.504e-7, 1.390e-4
0.860, 1.739e-7, 1.390e-4
0.850, 1.827e-7, 1.390e-4
0.840, 1.978e-7, 1.390e-4
0.830, 2.229e-7, 1.391e-4
0.820, 2.310e-7, 1.391e-4
0.810, 2.513e-7, 1.391e-4
0.800, 2.757e-7, 1.391e-4
0.790, 2.889e-7, 1.392e-4
0.780, 3.154e-7, 1.392e-4
0.770, 3.317e-7, 1.392e-4
0.760, 3.626e-7, 1.393e-4
0.750, 3.809e-7, 1.393e-4
0.740, 4.140e-7, 1.394e-4
0.730, 4.339e-7, 1.394e-4
0.720, 4.711e-7, 1.394e-4
0.710, 5.033e-7, 1.395e-4
0.700, 5.301e-7, 1.396e-4
0.690, 5.706e-7, 1.396e-4
0.680, 6.110e-7, 1.397e-4
0.670, 6.487e-7, 1.397e-4
0.660, 6.919e-7, 1.398e-4
0.650, 7.430e-7, 1.399e-4
0.640, 7.967e-7, 1.400e-4
0.630, 8.520e-7, 1.400e-4
0.620, 9.193e-7, 1.401e-4
0.610, 9.855e-7, 1.402e-4
0.600, 1.062e-6, 1.403e-4
0.590, 1.146e-6, 1.405e-4
0.580, 1.260e-6, 1.406e-4
0.570, 1.367e-6, 1.407e-4
0.560, 1.486e-6, 1.409e-4
0.550, 1.624e-6, 1.410e-4
0.540, 1.778e-6, 1.412e-4
0.530, 1.961e-6, 1.414e-4
0.520, 2.174e-6, 1.416e-4
0.510, 2.434e-6, 1.419e-4
0.500, 2.746e-6, 1.421e-4
0.490, 3.123e-6, 1.424e-4
0.480, 3.602e-6, 1.428e-4
0.470, 4.219e-6, 1.432e-4
0.460, 5.013e-6, 1.437e-4
0.450, 6.002e-6, 1.443e-4
0.440, 7.235e-6, 1.451e-4
0.430, 8.726e-6, 1.459e-4
0.420, 1.044e-5, 1.470e-4
0.410, 1.231e-5, 1.482e-4
0.400, 1.433e-5, 1.496e-4
0.390, 1.621e-5, 1.513e-4
0.380, 1.769e-5, 1.530e-4
0.370, 1.857e-5, 1.549e-4
0.360, 1.918e-5, 1.568e-4
0.350, 1.986e-5, 1.588e-4
0.340, 2.067e-5, 1.609e-4
0.330, 2.172e-5, 1.630e-4
0.320, 2.235e-5, 1.653e-4
0.310, 2.389e-5, 1.677e-4
0.300, 2.425e-5, 1.701e-4
0.290, 2.503e-5, 1.726e-4
0.280, 2.446e-5, 1.750e-4
0.270, 2.342e-5, 1.774e-4
0.260, 2.321e-5, 1.797e-4
0.250, 2.287e-5, 1.820e-4
0.240, 2.503e-5, 1.845e-4
0.230, 2.518e-5, 1.870e-4
0.220, 2.326e-5, 1.893e-4
0.210, 2.252e-5, 1.916e-4
0.200, 2.103e-5, 1.937e-4
0.190, 2.017e-5, 1.957e-4
0.180, 2.084e-5, 1.978e-4
0.170, 2.124e-5, 1.999e-4
0.160, 2.309e-5, 2.022e-4
0.150, 2.443e-5, 2.047e-4
0.140, 2.442e-5, 2.071e-4
0.130, 2.523e-5, 2.096e-4
0.120, 2.549e-5, 2.122e-4
0.110, 2.486e-5, 2.147e-4
0.100, 2.467e-5, 2.171e-4
0.090, 2.398e-5, 2.195e-4
0.080, 2.348e-5, 2.219e-4
0.070, 2.326e-5, 2.242e-4
0.060, 2.326e-5, 2.265e-4
0.050, 2.596e-5, 2.291e-4
0.040, 2.699e-5, 2.318e-4
0.030, 2.549e-5, 2.344e-4
0.020, 2.423e-5, 2.368e-4
0.010, 2.210e-5, 2.390e-4
0.000, 2.141e-5, 2.411e-4
-0.010, 2.264e-5, 2.434e-4
-0.020, 2.446e-5, 2.458e-4
-0.030, 2.529e-5, 2.484e-4
-0.040, 2.549e-5, 2.509e-4
-0.050, 2.682e-5, 2.536e-4
-0.060, 2.866e-5, 2.565e-4
-0.070, 2.668e-5, 2.591e-4
-0.080, 2.429e-5, 2.616e-4
-0.090, 2.386e-5, 2.640e-4
-0.100, 2.528e-5, 2.665e-4
-0.110, 2.610e-5, 2.691e-4
-0.120, 2.631e-5, 2.717e-4
-0.130, 2.613e-5, 2.743e-4
-0.140, 2.590e-5, 2.769e-4
-0.150, 2.542e-5, 2.795e-4
-0.160, 2.560e-5, 2.820e-4
-0.170, 2.711e-5, 2.847e-4
-0.180, 2.562e-5, 2.873e-4
-0.190, 2.577e-5, 2.899e-4
-0.200, 2.782e-5, 2.927e-4
-0.210, 2.866e-5, 2.955e-4
-0.220, 3.046e-5, 2.986e-4
-0.230, 3.090e-5, 3.017e-4
-0.240, 3.024e-5, 3.047e-4
-0.250, 2.854e-5, 3.075e-4
-0.260, 2.811e-5, 3.104e-4
-0.270, 2.685e-5, 3.130e-4
-0.280, 2.671e-5, 3.157e-4
-0.290, 2.733e-5, 3.184e-4
-0.300, 2.525e-5, 3.210e-4

Segment 3:
-0.290, 2.450e-5, 3.234e-4
-0.280, 2.395e-5, 3.258e-4
-0.270, 2.401e-5, 3.282e-4
-0.260, 2.283e-5, 3.305e-4
-0.250, 2.300e-5, 3.328e-4
-0.240, 2.225e-5, 3.350e-4
-0.230, 2.085e-5, 3.371e-4
-0.220, 2.085e-5, 3.392e-4
-0.210, 2.232e-5, 3.414e-4
-0.200, 2.476e-5, 3.439e-4
-0.190, 2.512e-5, 3.464e-4
-0.180, 2.542e-5, 3.490e-4
-0.170, 2.552e-5, 3.515e-4
-0.160, 2.485e-5, 3.540e-4
-0.150, 2.442e-5, 3.564e-4
-0.140, 2.278e-5, 3.587e-4
-0.130, 2.281e-5, 3.610e-4
-0.120, 2.115e-5, 3.631e-4
-0.110, 1.993e-5, 3.651e-4
-0.100, 2.022e-5, 3.671e-4
-0.090, 2.135e-5, 3.693e-4
-0.080, 1.947e-5, 3.712e-4
-0.070, 1.895e-5, 3.731e-4
-0.060, 2.017e-5, 3.751e-4
-0.050, 2.128e-5, 3.772e-4
-0.040, 2.224e-5, 3.795e-4
-0.030, 2.390e-5, 3.819e-4
-0.020, 2.529e-5, 3.844e-4
-0.010, 2.435e-5, 3.868e-4
-0.000, 2.311e-5, 3.891e-4
0.010, 2.182e-5, 3.913e-4
0.020, 2.049e-5, 3.934e-4
0.030, 2.236e-5, 3.956e-4
0.040, 2.399e-5, 3.980e-4
0.050, 2.459e-5, 4.005e-4
0.060, 2.551e-5, 4.030e-4
0.070, 2.455e-5, 4.055e-4
0.080, 2.255e-5, 4.077e-4
0.090, 2.169e-5, 4.099e-4
0.100, 1.965e-5, 4.119e-4
0.110, 1.754e-5, 4.136e-4
0.120, 1.973e-5, 4.156e-4
0.130, 2.339e-5, 4.179e-4
0.140, 2.460e-5, 4.204e-4
0.150, 2.549e-5, 4.229e-4
0.160, 2.534e-5, 4.255e-4
0.170, 2.210e-5, 4.277e-4
0.180, 2.097e-5, 4.298e-4
0.190, 2.125e-5, 4.319e-4
0.200, 2.131e-5, 4.340e-4
0.210, 2.244e-5, 4.363e-4
0.220, 2.345e-5, 4.386e-4
0.230, 2.496e-5, 4.411e-4
0.240, 2.502e-5, 4.436e-4
0.250, 2.585e-5, 4.462e-4
0.260, 2.448e-5, 4.486e-4
0.270, 2.287e-5, 4.509e-4
0.280, 2.332e-5, 4.533e-4
0.290, 2.275e-5, 4.555e-4
0.300, 2.200e-5, 4.577e-4
0.310, 2.303e-5, 4.600e-4
0.320, 2.200e-5, 4.622e-4
0.330, 1.979e-5, 4.642e-4
0.340, 2.007e-5, 4.662e-4
0.350, 2.062e-5, 4.683e-4
0.360, 2.041e-5, 4.703e-4
0.370, 1.934e-5, 4.723e-4
0.380, 1.745e-5, 4.740e-4
0.390, 1.546e-5, 4.756e-4
0.400, 1.454e-5, 4.770e-4
0.410, 1.320e-5, 4.783e-4
0.420, 1.211e-5, 4.795e-4
0.430, 1.129e-5, 4.807e-4
0.440, 1.113e-5, 4.818e-4
0.450, 1.091e-5, 4.829e-4
0.460, 1.013e-5, 4.839e-4
0.470, 9.876e-6, 4.849e-4
0.480, 9.523e-6, 4.858e-4
0.490, 8.581e-6, 4.867e-4
0.500, 7.454e-6, 4.874e-4
0.510, 6.265e-6, 4.881e-4
0.520, 4.998e-6, 4.886e-4
0.530, 3.858e-6, 4.889e-4
0.540, 2.801e-6, 4.892e-4
0.550, 1.902e-6, 4.894e-4
0.560, 1.151e-6, 4.895e-4
0.570, 5.033e-7, 4.896e-4
0.580, -4.946e-8, 4.896e-4
0.590, -5.964e-7, 4.895e-4
0.600, -9.739e-7, 4.894e-4
0.610, -1.276e-6, 4.893e-4
0.620, -1.506e-6, 4.891e-4
0.630, -1.683e-6, 4.890e-4
0.640, -1.811e-6, 4.888e-4
0.650, -1.923e-6, 4.886e-4
0.660, -2.002e-6, 4.884e-4
0.670, -2.062e-6, 4.882e-4
0.680, -2.106e-6, 4.880e-4
0.690, -2.138e-6, 4.878e-4
0.700, -2.165e-6, 4.875e-4
0.710, -2.187e-6, 4.873e-4
0.720, -2.208e-6, 4.871e-4
0.730, -2.220e-6, 4.869e-4
0.740, -2.233e-6, 4.867e-4
0.750, -2.250e-6, 4.864e-4
0.760, -2.260e-6, 4.862e-4
0.770, -2.281e-6, 4.860e-4
0.780, -2.302e-6, 4.858e-4
0.790, -2.318e-6, 4.855e-4
0.800, -2.343e-6, 4.853e-4
0.810, -2.365e-6, 4.850e-4
0.820, -2.390e-6, 4.848e-4
0.830, -2.418e-6, 4.846e-4
0.840, -2.447e-6, 4.843e-4
0.850, -2.482e-6, 4.841e-4
0.860, -2.516e-6, 4.838e-4
0.870, -2.549e-6, 4.836e-4
0.880, -2.584e-6, 4.833e-4
0.890, -2.612e-6, 4.830e-4
0.900, -2.644e-6, 4.828e-4
0.910, -2.682e-6, 4.825e-4
0.920, -2.715e-6, 4.822e-4
0.930, -2.747e-6, 4.820e-4
0.940, -2.774e-6, 4.817e-4
0.950, -2.800e-6, 4.814e-4
0.960, -2.830e-6, 4.811e-4
0.970, -2.857e-6, 4.808e-4
0.980, -2.889e-6, 4.806e-4
0.990, -2.912e-6, 4.803e-4
1.000, -2.937e-6, 4.800e-4
1.010, -2.951e-6, 4.797e-4
1.020, -2.977e-6, 4.794e-4
1.030, -2.993e-6, 4.791e-4
1.040, -3.012e-6, 4.788e-4
1.050, -3.031e-6, 4.785e-4
1.060, -3.041e-6, 4.782e-4
1.070, -3.061e-6, 4.779e-4
1.080, -3.084e-6, 4.776e-4
1.090, -3.098e-6, 4.772e-4
1.100, -3.122e-6, 4.769e-4
1.110, -3.140e-6, 4.766e-4
1.120, -3.167e-6, 4.763e-4
1.130, -3.194e-6, 4.760e-4
1.140, -3.231e-6, 4.757e-4
1.150, -3.272e-6, 4.753e-4
1.160, -3.322e-6, 4.750e-4
1.170, -3.378e-6, 4.747e-4
1.180, -3.447e-6, 4.743e-4
1.190, -3.535e-6, 4.740e-4
1.200, -3.631e-6, 4.736e-4
1.210, -3.750e-6, 4.732e-4
1.220, -3.893e-6, 4.728e-4
1.230, -4.062e-6, 4.724e-4
1.240, -4.263e-6, 4.720e-4
1.250, -3.691e-6, 4.716e-4

Segment 4:
1.240, -2.632e-6, 4.714e-4
1.230, -1.991e-6, 4.712e-4
1.220, -1.555e-6, 4.710e-4
1.210, -1.261e-6, 4.709e-4
1.200, -1.039e-6, 4.708e-4
1.190, -8.767e-7, 4.707e-4
1.180, -7.523e-7, 4.706e-4
1.170, -6.536e-7, 4.706e-4
1.160, -5.791e-7, 4.705e-4
1.150, -5.145e-7, 4.704e-4
1.140, -4.607e-7, 4.704e-4
1.130, -4.150e-7, 4.704e-4
1.120, -3.857e-7, 4.703e-4
1.110, -3.492e-7, 4.703e-4
1.100, -2.530e-7, 4.703e-4
1.090, -2.033e-7, 4.702e-4
1.080, -1.750e-7, 4.702e-4
1.070, -1.588e-7, 4.702e-4
1.060, -1.365e-7, 4.702e-4
1.050, -1.143e-7, 4.702e-4
1.040, -1.008e-7, 4.702e-4
1.030, -7.964e-8, 4.702e-4
1.020, -6.514e-8, 4.702e-4
1.010, -5.564e-8, 4.702e-4
1.000, -3.525e-8, 4.702e-4
0.990, -1.683e-8, 4.701e-4
0.980, -8.723e-9, 4.701e-4
0.970, 1.020e-8, 4.701e-4
0.960, 2.945e-8, 4.702e-4
0.950, 3.538e-8, 4.702e-4
0.940, 4.392e-8, 4.702e-4
0.930, 6.383e-8, 4.702e-4
0.920, 8.063e-8, 4.702e-4
0.910, 8.730e-8, 4.702e-4
0.900, 1.044e-7, 4.702e-4
0.890, 1.243e-7, 4.702e-4
0.880, 1.333e-7, 4.702e-4
0.870, 1.472e-7, 4.702e-4
0.860, 1.695e-7, 4.703e-4
0.850, 1.816e-7, 4.703e-4
0.840, 1.955e-7, 4.703e-4
0.830, 2.195e-7, 4.703e-4
0.820, 2.314e-7, 4.703e-4
0.810, 2.499e-7, 4.704e-4
0.800, 2.736e-7, 4.704e-4
0.790, 2.872e-7, 4.704e-4
0.780, 3.149e-7, 4.704e-4
0.770, 3.322e-7, 4.705e-4
0.760, 3.611e-7, 4.705e-4
0.750, 3.822e-7, 4.706e-4
0.740, 4.129e-7, 4.706e-4
0.730, 4.358e-7, 4.706e-4
0.720, 4.715e-7, 4.707e-4
0.710, 5.046e-7, 4.707e-4
0.700, 5.339e-7, 4.708e-4
0.690, 5.724e-7, 4.708e-4
0.680, 6.136e-7, 4.709e-4
0.670, 6.535e-7, 4.710e-4
0.660, 6.978e-7, 4.710e-4
0.650, 7.501e-7, 4.711e-4
0.640, 8.037e-7, 4.712e-4
0.630, 8.601e-7, 4.713e-4
0.620, 9.304e-7, 4.714e-4
0.610, 9.971e-7, 4.715e-4
0.600, 1.075e-6, 4.716e-4
0.590, 1.166e-6, 4.717e-4
0.580, 1.277e-6, 4.718e-4
0.570, 1.390e-6, 4.720e-4
0.560, 1.512e-6, 4.721e-4
0.550, 1.655e-6, 4.723e-4
0.540, 1.814e-6, 4.725e-4
0.530, 2.005e-6, 4.727e-4
0.520, 2.231e-6, 4.729e-4
0.510, 2.499e-6, 4.731e-4
0.500, 2.832e-6, 4.734e-4
0.490, 3.237e-6, 4.737e-4
0.480, 3.755e-6, 4.741e-4
0.470, 4.433e-6, 4.746e-4
0.460, 5.304e-6, 4.751e-4
0.450, 6.405e-6, 4.757e-4
0.440, 7.793e-6, 4.765e-4
0.430, 9.455e-6, 4.775e-4
0.420, 1.136e-5, 4.786e-4
0.410, 1.335e-5, 4.799e-4
0.400, 1.534e-5, 4.815e-4
0.390, 1.730e-5, 4.832e-4
0.380, 1.902e-5, 4.851e-4
0.370, 2.082e-5, 4.872e-4
0.360, 2.174e-5, 4.894e-4
0.350, 2.214e-5, 4.916e-4
0.340, 2.195e-5, 4.938e-4
0.330, 2.134e-5, 4.959e-4
0.320, 2.102e-5, 4.980e-4
0.310, 2.130e-5, 5.001e-4
0.300, 2.229e-5, 5.024e-4
0.290, 2.255e-5, 5.046e-4
0.280, 2.334e-5, 5.069e-4
0.270, 2.378e-5, 5.093e-4
0.260, 2.342e-5, 5.117e-4
0.250, 2.282e-5, 5.139e-4
0.240, 2.372e-5, 5.163e-4
0.230, 2.612e-5, 5.189e-4
0.220, 2.408e-5, 5.213e-4
0.210, 2.170e-5, 5.235e-4
0.200, 1.939e-5, 5.254e-4
0.190, 1.892e-5, 5.273e-4
0.180, 2.045e-5, 5.294e-4
0.170, 2.294e-5, 5.317e-4
0.160, 2.397e-5, 5.341e-4
0.150, 2.314e-5, 5.364e-4
0.140, 2.355e-5, 5.387e-4
0.130, 2.138e-5, 5.409e-4
0.120, 1.899e-5, 5.428e-4
0.110, 1.905e-5, 5.447e-4
0.100, 2.159e-5, 5.468e-4
0.090, 2.415e-5, 5.493e-4
0.080, 2.376e-5, 5.516e-4
0.070, 2.372e-5, 5.540e-4
0.060, 2.338e-5, 5.563e-4
0.050, 2.336e-5, 5.587e-4
0.040, 2.390e-5, 5.611e-4
0.030, 2.355e-5, 5.634e-4
0.020, 2.370e-5, 5.658e-4
0.010, 2.539e-5, 5.683e-4
0.000, 2.728e-5, 5.711e-4
-0.010, 2.608e-5, 5.737e-4
-0.020, 2.528e-5, 5.762e-4
-0.030, 2.469e-5, 5.787e-4
-0.040, 2.390e-5, 5.811e-4
-0.050, 2.347e-5, 5.834e-4
-0.060, 2.604e-5, 5.860e-4
-0.070, 2.596e-5, 5.886e-4
-0.080, 2.764e-5, 5.914e-4
-0.090, 2.663e-5, 5.940e-4
-0.100, 2.449e-5, 5.965e-4
-0.110, 2.406e-5, 5.989e-4
-0.120, 2.401e-5, 6.013e-4
-0.130, 2.210e-5, 6.035e-4
-0.140, 2.114e-5, 6.056e-4
-0.150, 2.255e-5, 6.079e-4
-0.160, 2.302e-5, 6.102e-4
-0.170, 2.364e-5, 6.125e-4
-0.180, 2.533e-5, 6.151e-4
-0.190, 2.763e-5, 6.178e-4
-0.200, 2.742e-5, 6.206e-4
-0.210, 2.648e-5, 6.232e-4
-0.220, 2.731e-5, 6.260e-4
-0.230, 3.020e-5, 6.290e-4
-0.240, 2.981e-5, 6.320e-4
-0.250, 2.731e-5, 6.347e-4
-0.260, 2.451e-5, 6.371e-4
-0.270, 2.417e-5, 6.396e-4
-0.280, 2.285e-5, 6.418e-4
-0.290, 2.148e-5, 6.440e-4
-0.300, 1.651e-5, 6.456e-4

Segment 5:
-0.290, 1.395e-5, 6.470e-4
-0.280, 1.636e-5, 6.487e-4
-0.270, 1.914e-5, 6.506e-4
-0.260, 2.007e-5, 6.526e-4
-0.250, 2.080e-5, 6.547e-4
-0.240, 2.256e-5, 6.569e-4
-0.230, 2.171e-5, 6.591e-4
-0.220, 1.997e-5, 6.611e-4
-0.210, 1.959e-5, 6.631e-4
-0.200, 1.832e-5, 6.649e-4
-0.190, 1.852e-5, 6.667e-4
[...]
-0.160, 2.403e-5, 9.252e-4
-0.170, 2.703e-5, 9.279e-4
-0.180, 2.800e-5, 9.307e-4
-0.190, 2.547e-5, 9.333e-4
-0.200, 2.287e-5, 9.356e-4
-0.210, 2.245e-5, 9.378e-4
-0.220, 2.518e-5, 9.403e-4
-0.230, 2.767e-5, 9.431e-4
-0.240, 2.878e-5, 9.460e-4
-0.250, 2.838e-5, 9.488e-4
-0.260, 2.825e-5, 9.516e-4
-0.270, 2.788e-5, 9.544e-4
-0.280, 2.769e-5, 9.572e-4
-0.290, 2.743e-5, 9.599e-4
-0.300, 2.308e-5, 9.622e-4

Segment 7:
-0.290, 2.011e-5, 9.643e-4
-0.280, 2.048e-5, 9.663e-4
-0.270, 2.027e-5, 9.683e-4
-0.260, 2.009e-5, 9.703e-4
-0.250, 2.127e-5, 9.725e-4
-0.240, 2.299e-5, 9.748e-4
-0.230, 2.353e-5, 9.771e-4
-0.220, 2.373e-5, 9.795e-4
-0.210, 2.369e-5, 9.819e-4
-0.200, 2.246e-5, 9.841e-4
-0.190, 2.203e-5, 9.863e-4
-0.180, 2.382e-5, 9.887e-4
-0.170, 2.326e-5, 9.910e-4
-0.160, 2.273e-5, 9.933e-4
-0.150, 2.111e-5, 9.954e-4
-0.140, 2.018e-5, 9.974e-4
-0.130, 1.966e-5, 9.994e-4
-0.120, 2.140e-5, 1.002e-3
-0.110, 2.257e-5, 1.004e-3
-0.100, 2.078e-5, 1.006e-3
-0.090, 1.931e-5, 1.008e-3
-0.080, 1.697e-5, 1.009e-3
-0.070, 1.540e-5, 1.011e-3
-0.060, 1.483e-5, 1.013e-3
-0.050, 1.780e-5, 1.014e-3
-0.040, 2.200e-5, 1.016e-3
-0.030, 2.312e-5, 1.019e-3
-0.020, 2.288e-5, 1.021e-3
-0.010, 2.258e-5, 1.023e-3
-0.000, 2.283e-5, 1.026e-3
0.010, 2.370e-5, 1.028e-3
0.020, 2.455e-5, 1.030e-3
0.030, 2.383e-5, 1.033e-3
0.040, 2.334e-5, 1.035e-3
0.050, 2.124e-5, 1.037e-3
0.060, 1.973e-5, 1.039e-3
0.070, 1.925e-5, 1.041e-3
0.080, 1.923e-5, 1.043e-3
0.090, 2.030e-5, 1.045e-3
0.100, 2.034e-5, 1.047e-3
0.110, 1.976e-5, 1.049e-3
0.120, 1.837e-5, 1.051e-3
0.130, 1.780e-5, 1.053e-3
0.140, 1.902e-5, 1.055e-3
0.150, 2.067e-5, 1.057e-3
0.160, 2.145e-5, 1.059e-3
0.170, 2.021e-5, 1.061e-3
0.180, 1.765e-5, 1.063e-3
0.190, 1.639e-5, 1.064e-3
0.200, 1.772e-5, 1.066e-3
0.210, 2.144e-5, 1.068e-3
0.220, 2.444e-5, 1.071e-3
0.230, 2.505e-5, 1.073e-3
0.240, 2.475e-5, 1.076e-3
0.250, 2.306e-5, 1.078e-3
0.260, 2.161e-5, 1.080e-3
0.270, 2.019e-5, 1.082e-3
0.280, 1.862e-5, 1.084e-3
0.290, 1.773e-5, 1.086e-3
0.300, 1.846e-5, 1.088e-3
0.310, 2.076e-5, 1.090e-3
0.320, 2.092e-5, 1.092e-3
0.330, 1.873e-5, 1.094e-3
0.340, 1.624e-5, 1.095e-3
0.350, 1.654e-5, 1.097e-3
0.360, 1.770e-5, 1.099e-3
0.370, 1.750e-5, 1.100e-3
0.380, 1.656e-5, 1.102e-3
0.390, 1.547e-5, 1.104e-3
0.400, 1.515e-5, 1.105e-3
0.410, 1.459e-5, 1.107e-3
0.420, 1.420e-5, 1.108e-3
0.430, 1.341e-5, 1.109e-3
0.440, 1.234e-5, 1.111e-3
0.450, 1.114e-5, 1.112e-3
0.460, 9.996e-6, 1.113e-3
0.470, 9.986e-6, 1.114e-3
0.480, 9.593e-6, 1.115e-3
0.490, 8.834e-6, 1.116e-3
0.500, 7.929e-6, 1.116e-3
0.510, 6.514e-6, 1.117e-3
0.520, 5.160e-6, 1.118e-3
0.530, 3.998e-6, 1.118e-3
0.540, 2.932e-6, 1.118e-3
0.550, 2.004e-6, 1.118e-3
0.560, 1.206e-6, 1.119e-3
0.570, 5.260e-7, 1.119e-3
0.580, -7.182e-8, 1.119e-3
0.590, -6.359e-7, 1.119e-3
0.600, -1.029e-6, 1.118e-3
0.610, -1.339e-6, 1.118e-3
0.620, -1.571e-6, 1.118e-3
0.630, -1.743e-6, 1.118e-3
0.640, -1.863e-6, 1.118e-3
0.650, -1.972e-6, 1.118e-3
0.660, -2.036e-6, 1.117e-3
0.670, -2.087e-6, 1.117e-3
0.680, -2.126e-6, 1.117e-3
0.690, -2.150e-6, 1.117e-3
0.700, -2.174e-6, 1.117e-3
0.710, -2.192e-6, 1.116e-3
0.720, -2.211e-6, 1.116e-3
0.730, -2.221e-6, 1.116e-3
0.740, -2.230e-6, 1.116e-3
0.750, -2.243e-6, 1.115e-3
0.760, -2.253e-6, 1.115e-3
0.770, -2.266e-6, 1.115e-3
0.780, -2.284e-6, 1.115e-3
0.790, -2.299e-6, 1.115e-3
0.800, -2.316e-6, 1.114e-3
0.810, -2.339e-6, 1.114e-3
0.820, -2.355e-6, 1.114e-3
0.830, -2.384e-6, 1.114e-3
0.840, -2.411e-6, 1.113e-3
0.850, -2.441e-6, 1.113e-3
0.860, -2.472e-6, 1.113e-3
0.870, -2.505e-6, 1.113e-3
0.880, -2.537e-6, 1.112e-3
0.890, -2.561e-6, 1.112e-3
0.900, -2.595e-6, 1.112e-3
0.910, -2.628e-6, 1.112e-3
0.920, -2.657e-6, 1.111e-3
0.930, -2.691e-6, 1.111e-3
0.940, -2.719e-6, 1.111e-3
0.950, -2.745e-6, 1.110e-3
0.960, -2.767e-6, 1.110e-3
0.970, -2.794e-6, 1.110e-3
0.980, -2.813e-6, 1.110e-3
0.990, -2.838e-6, 1.109e-3
1.000, -2.855e-6, 1.109e-3
1.010, -2.881e-6, 1.109e-3
1.020, -2.898e-6, 1.108e-3
1.030, -2.918e-6, 1.108e-3
1.040, -2.938e-6, 1.108e-3
1.050, -2.945e-6, 1.108e-3
1.060, -2.960e-6, 1.107e-3
1.070, -2.983e-6, 1.107e-3
1.080, -2.994e-6, 1.107e-3
1.090, -3.015e-6, 1.106e-3
1.100, -3.036e-6, 1.106e-3
1.110, -3.052e-6, 1.106e-3
1.120, -3.083e-6, 1.105e-3
1.130, -3.116e-6, 1.105e-3
1.140, -3.147e-6, 1.105e-3
1.150, -3.189e-6, 1.105e-3
1.160, -3.240e-6, 1.104e-3
1.170, -3.298e-6, 1.104e-3
1.180, -3.367e-6, 1.104e-3
1.190, -3.453e-6, 1.103e-3
1.200, -3.554e-6, 1.103e-3
1.210, -3.676e-6, 1.102e-3
1.220, -3.818e-6, 1.102e-3
1.230, -3.988e-6, 1.102e-3
1.240, -4.201e-6, 1.101e-3
1.250, -3.625e-6, 1.101e-3

Segment 8:
1.240, -2.579e-6, 1.101e-3
1.230, -1.947e-6, 1.100e-3
1.220, -1.523e-6, 1.100e-3
1.210, -1.230e-6, 1.100e-3
1.200, -1.019e-6, 1.100e-3
1.190, -8.578e-7, 1.100e-3
1.180, -7.387e-7, 1.100e-3
1.170, -6.427e-7, 1.100e-3
1.160, -5.709e-7, 1.100e-3
1.150, -5.066e-7, 1.100e-3
1.140, -4.543e-7, 1.100e-3
1.130, -4.095e-7, 1.100e-3
1.120, -3.798e-7, 1.100e-3
1.110, -3.468e-7, 1.100e-3
1.100, -2.436e-7, 1.100e-3
1.090, -2.019e-7, 1.100e-3
1.080, -1.723e-7, 1.100e-3
1.070, -1.583e-7, 1.100e-3
1.060, -1.366e-7, 1.100e-3
1.050, -1.144e-7, 1.100e-3
1.040, -1.061e-7, 1.099e-3
1.030, -8.125e-8, 1.099e-3
1.020, -6.436e-8, 1.099e-3
1.010, -5.727e-8, 1.099e-3
1.000, -3.775e-8, 1.099e-3
0.990, -1.776e-8, 1.099e-3
0.980, -8.116e-9, 1.099e-3
0.970, 8.302e-9, 1.099e-3
0.960, 2.758e-8, 1.099e-3
0.950, 3.487e-8, 1.099e-3
0.940, 4.223e-8, 1.099e-3
0.930, 6.087e-8, 1.099e-3
0.920, 7.922e-8, 1.099e-3
0.910, 8.895e-8, 1.100e-3
0.900, 9.951e-8, 1.100e-3
0.890, 1.211e-7, 1.100e-3
0.880, 1.330e-7, 1.100e-3
0.870, 1.443e-7, 1.100e-3
0.860, 1.680e-7, 1.100e-3
0.850, 1.811e-7, 1.100e-3
0.840, 1.933e-7, 1.100e-3
0.830, 2.177e-7, 1.100e-3
0.820, 2.304e-7, 1.100e-3
0.810, 2.469e-7, 1.100e-3
0.800, 2.722e-7, 1.100e-3
0.790, 2.894e-7, 1.100e-3
0.780, 3.156e-7, 1.100e-3
0.770, 3.314e-7, 1.100e-3
0.760, 3.597e-7, 1.100e-3
0.750, 3.807e-7, 1.100e-3
0.740, 4.119e-7, 1.100e-3
0.730, 4.345e-7, 1.100e-3
0.720, 4.695e-7, 1.100e-3
0.710, 5.019e-7, 1.100e-3
0.700, 5.340e-7, 1.100e-3
0.690, 5.721e-7, 1.100e-3
0.680, 6.145e-7, 1.100e-3
0.670, 6.556e-7, 1.100e-3
0.660, 7.032e-7, 1.100e-3
0.650, 7.520e-7, 1.100e-3
0.640, 8.052e-7, 1.101e-3
0.630, 8.665e-7, 1.101e-3
0.620, 9.314e-7, 1.101e-3
0.610, 1.001e-6, 1.101e-3
0.600, 1.084e-6, 1.101e-3
0.590, 1.173e-6, 1.101e-3
0.580, 1.286e-6, 1.101e-3
0.570, 1.398e-6, 1.101e-3
0.560, 1.524e-6, 1.101e-3
0.550, 1.668e-6, 1.102e-3
0.540, 1.832e-6, 1.102e-3
0.530, 2.030e-6, 1.102e-3
0.520, 2.257e-6, 1.102e-3
0.510, 2.535e-6, 1.102e-3
0.500, 2.878e-6, 1.103e-3
0.490, 3.298e-6, 1.103e-3
0.480, 3.838e-6, 1.103e-3
0.470, 4.556e-6, 1.104e-3
0.460, 5.473e-6, 1.104e-3
0.450, 6.647e-6, 1.105e-3
0.440, 8.135e-6, 1.106e-3
0.430, 9.904e-6, 1.107e-3
0.420, 1.193e-5, 1.108e-3
0.410, 1.407e-5, 1.110e-3
0.400, 1.619e-5, 1.111e-3
0.390, 1.823e-5, 1.113e-3
0.380, 1.996e-5, 1.115e-3
0.370, 2.125e-5, 1.117e-3
0.360, 2.175e-5, 1.119e-3
0.350, 2.228e-5, 1.122e-3
0.340, 2.222e-5, 1.124e-3
0.330, 2.148e-5, 1.126e-3
0.320, 2.184e-5, 1.128e-3
0.310, 2.161e-5, 1.130e-3
0.300, 2.085e-5, 1.132e-3
0.290, 1.940e-5, 1.134e-3
0.280, 2.025e-5, 1.136e-3
0.270, 2.251e-5, 1.139e-3
0.260, 2.359e-5, 1.141e-3
0.250, 2.474e-5, 1.143e-3
0.240, 2.355e-5, 1.146e-3
0.230, 2.211e-5, 1.148e-3
0.220, 2.080e-5, 1.150e-3
0.210, 1.970e-5, 1.152e-3
0.200, 1.930e-5, 1.154e-3
0.190, 2.035e-5, 1.156e-3
0.180, 2.173e-5, 1.158e-3
0.170, 2.207e-5, 1.160e-3
0.160, 2.155e-5, 1.162e-3
0.150, 2.077e-5, 1.165e-3
0.140, 2.105e-5, 1.167e-3
0.130, 2.056e-5, 1.169e-3
0.120, 1.994e-5, 1.171e-3
0.110, 2.140e-5, 1.173e-3
0.100, 2.302e-5, 1.175e-3
0.090, 2.459e-5, 1.178e-3
0.080, 2.458e-5, 1.180e-3
0.070, 2.461e-5, 1.183e-3
0.060, 2.464e-5, 1.185e-3
0.050, 2.358e-5, 1.187e-3
0.040, 2.376e-5, 1.190e-3
0.030, 2.392e-5, 1.192e-3
0.020, 2.370e-5, 1.194e-3
0.010, 2.391e-5, 1.197e-3
0.000, 2.378e-5, 1.199e-3
-0.010, 2.225e-5, 1.201e-3
-0.020, 2.218e-5, 1.204e-3
-0.030, 2.212e-5, 1.206e-3
-0.040, 2.199e-5, 1.208e-3
-0.050, 2.085e-5, 1.210e-3
-0.060, 2.332e-5, 1.213e-3
-0.070, 2.367e-5, 1.215e-3
-0.080, 2.271e-5, 1.217e-3
-0.090, 2.124e-5, 1.219e-3
-0.100, 2.141e-5, 1.221e-3
-0.110, 2.206e-5, 1.224e-3
-0.120, 2.448e-5, 1.226e-3
-0.130, 2.556e-5, 1.229e-3
-0.140, 2.432e-5, 1.231e-3
-0.150, 2.312e-5, 1.233e-3
-0.160, 2.342e-5, 1.236e-3
-0.170, 2.530e-5, 1.238e-3
-0.180, 2.947e-5, 1.241e-3
-0.190, 2.840e-5, 1.244e-3
-0.200, 2.624e-5, 1.247e-3
-0.210, 2.425e-5, 1.249e-3
-0.220, 2.228e-5, 1.251e-3
-0.230, 2.213e-5, 1.254e-3
-0.240, 2.280e-5, 1.256e-3
-0.250, 2.568e-5, 1.258e-3
-0.260, 2.898e-5, 1.261e-3
-0.270, 2.878e-5, 1.264e-3
-0.280, 2.752e-5, 1.267e-3
-0.290, 2.598e-5, 1.270e-3
-0.300, 2.234e-5, 1.272e-3