File: 循环伏安/analysis/114514/oxide_LSV.txt
Nov. 2, 2023   13:20:10
Linear Sweep Voltammetry
File: c:\users\dell\desktop\电化学数据\114514\oxide_lsv.txt
Data Source:  Experiment
Instrument Model:  CHI600B
Header:
Note:

Init E (V) = 1.25
Final E (V) = -0.3
Scan Rate (V/s) = 0.01
Sample Interval (V) = 0.001
Quiet Time (sec) = 2
Sensitivity (A/V) = 1e-5

Ep = 0.346V
ip = 6.827e-6A
Ah = 4.496e-5C

Ep = -0.299V
ip = 3.338e-7A
Ah = 1.452e-5C

Potential/V, Current/A, Charge/C

Segment 1:
1.249, -5.074e-6, -5.074e-7
1.243, -1.737e-6, -1.956e-6
1.237, -1.204e-6, -2.789e-6
1.231, -9.486e-7, -3.416e-6
1.225, -7.949e-7, -3.928e-6
1.219, -6.930e-7, -4.366e-6
1.213, -6.010e-7, -4.748e-6
1.207, -5.503e-7, -5.092e-6
1.201, -5.007e-7, -5.402e-6
1.195, -4.536e-7, -5.685e-6
1.189, -4.173e-7, -5.948e-6
1.183, -4.035e-7, -6.192e-6
1.177, -3.707e-7, -6.425e-6
1.171, -3.551e-7, -6.639e-6
1.165, -3.256e-7, -6.846e-6
1.159, -2.300e-7, -7.005e-6
1.153, -2.091e-7, -7.133e-6
1.147, -2.031e-7, -7.257e-6
1.141, -1.886e-7, -7.374e-6
1.135, -1.690e-7, -7.480e-6
1.129, -1.610e-7, -7.578e-6
1.123, -1.601e-7, -7.674e-6
1.117, -1.589e-7, -7.770e-6
1.111, -1.537e-7, -7.864e-6
1.105, -1.413e-7, -7.952e-6
1.099, -1.271e-7, -8.031e-6
1.093, -1.169e-7, -8.103e-6
1.087, -1.127e-7, -8.172e-6
1.081, -1.115e-7, -8.239e-6
1.075, -1.109e-7, -8.306e-6
1.069, -1.098e-7, -8.372e-6
1.063, -1.072e-7, -8.437e-6
1.057, -1.026e-7, -8.500e-6
1.051, -9.620e-8, -8.560e-6
1.045, -8.868e-8, -8.616e-6
1.039, -8.101e-8, -8.667e-6
1.033, -7.433e-8, -8.714e-6
1.027, -6.924e-8, -8.757e-6
1.021, -6.600e-8, -8.797e-6
1.015, -6.411e-8, -8.836e-6
1.009, -6.313e-8, -8.875e-6
1.003, -6.268e-8, -8.912e-6
0.997, -6.243e-8, -8.950e-6
0.991, -6.206e-8, -8.987e-6
0.985, -6.143e-8, -9.024e-6
0.979, -6.038e-8, -9.061e-6
0.973, -5.832e-8, -9.096e-6
0.967, -5.504e-8, -9.130e-6
0.961, -5.057e-8, -9.161e-6
0.955, -4.525e-8, -9.190e-6
0.949, -3.845e-8, -9.214e-6
0.943, -3.168e-8, -9.235e-6
0.937, -2.661e-8, -9.252e-6
0.931, -2.212e-8, -9.266e-6
0.925, -1.830e-8, -9.278e-6
0.919, -1.619e-8, -9.288e-6
0.913, -1.492e-8, -9.297e-6
0.907, -1.423e-8, -9.306e-6
0.901, -1.380e-8, -9.314e-6
0.895, -1.347e-8, -9.323e-6
0.889, -1.313e-8, -9.331e-6
0.883, -1.247e-8, -9.338e-6
0.877, -1.174e-8, -9.345e-6
0.871, -1.014e-8, -9.352e-6
0.865, -8.036e-9, -9.357e-6
0.859, -4.926e-9, -9.361e-6
0.853, -5.805e-10, -9.362e-6
0.847, 3.904e-9, -9.360e-6
0.841, 9.543e-9, -9.356e-6
0.835, 1.491e-8, -9.348e-6
0.829, 2.009e-8, -9.337e-6
0.823, 2.459e-8, -9.323e-6
0.817, 2.842e-8, -9.307e-6
0.811, 3.099e-8, -9.289e-6
0.805, 3.281e-8, -9.269e-6
0.799, 3.393e-8, -9.249e-6
0.793, 3.447e-8, -9.229e-6
0.787, 3.491e-8, -9.208e-6
0.781, 3.510e-8, -9.187e-6
0.775, 3.522e-8, -9.166e-6
0.769, 3.534e-8, -9.144e-6
0.763, 3.553e-8, -9.123e-6
0.757, 3.607e-8, -9.102e-6
0.751, 3.711e-8, -9.080e-6
0.745, 3.908e-8, -9.057e-6
0.739, 4.215e-8, -9.032e-6
0.733, 4.760e-8, -9.005e-6
0.727, 5.484e-8, -8.974e-6
0.721, 6.279e-8, -8.938e-6
0.715, 7.033e-8, -8.898e-6
0.709, 7.589e-8, -8.854e-6
0.703, 8.034e-8, -8.806e-6
0.697, 8.248e-8, -8.757e-6
0.691, 8.337e-8, -8.707e-6
0.685, 8.400e-8, -8.657e-6
0.679, 8.459e-8, -8.606e-6
0.673, 8.573e-8, -8.555e-6
0.667, 8.789e-8, -8.503e-6
0.661, 9.266e-8, -8.449e-6
0.655, 1.000e-7, -8.392e-6
0.649, 1.085e-7, -8.329e-6
0.643, 1.174e-7, -8.262e-6
0.637, 1.250e-7, -8.189e-6
0.631, 1.300e-7, -8.112e-6
0.625, 1.321e-7, -8.034e-6
0.619, 1.328e-7, -7.954e-6
0.613, 1.335e-7, -7.874e-6
0.607, 1.360e-7, -7.794e-6
0.601, 1.445e-7, -7.709e-6
0.595, 1.599e-7, -7.617e-6
0.589, 1.740e-7, -7.516e-6
0.583, 1.804e-7, -7.408e-6
0.577, 1.818e-7, -7.300e-6
0.571, 1.838e-7, -7.190e-6
0.565, 1.949e-7, -7.076e-6
0.559, 2.177e-7, -6.951e-6
0.553, 2.293e-7, -6.816e-6
0.547, 2.307e-7, -6.678e-6
0.541, 2.364e-7, -6.538e-6
0.535, 2.653e-7, -6.387e-6
0.529, 2.791e-7, -6.221e-6
0.523, 2.880e-7, -6.052e-6
0.517, 3.215e-7, -5.868e-6
0.511, 3.296e-7, -5.672e-6
0.505, 3.717e-7, -5.461e-6
0.499, 3.871e-7, -5.233e-6
0.493, 4.261e-7, -4.983e-6
0.487, 4.745e-7, -4.711e-6
0.481, 5.234e-7, -4.410e-6
0.475, 5.794e-7, -4.076e-6
0.469, 6.679e-7, -3.697e-6
0.463, 7.647e-7, -3.268e-6
0.457, 8.736e-7, -2.773e-6
0.451, 1.017e-6, -2.197e-6
0.445, 1.227e-6, -1.516e-6
0.439, 1.456e-6, -7.010e-7
0.433, 1.741e-6, 2.708e-7
0.427, 2.089e-6, 1.434e-6
0.421, 2.504e-6, 2.829e-6
0.415, 2.993e-6, 4.500e-6
0.409, 3.546e-6, 6.488e-6
0.403, 4.145e-6, 8.824e-6
0.397, 4.779e-6, 1.153e-5
0.391, 5.380e-6, 1.461e-5
0.385, 5.919e-6, 1.804e-5
0.379, 6.374e-6, 2.175e-5
0.373, 6.734e-6, 2.571e-5
0.367, 6.992e-6, 2.984e-5
0.361, 7.161e-6, 3.410e-5
0.355, 7.253e-6, 3.843e-5
0.349, 7.268e-6, 4.279e-5
0.343, 7.265e-6, 4.715e-5
0.337, 7.257e-6, 5.151e-5
0.331, 7.212e-6, 5.584e-5
0.325, 7.163e-6, 6.015e-5
0.319, 7.114e-6, 6.442e-5
0.313, 7.066e-6, 6.867e-5
0.307, 7.017e-6, 7.289e-5
0.301, 6.969e-6, 7.709e-5
0.295, 6.925e-6, 8.126e-5
0.289, 6.895e-6, 8.540e-5
0.283, 6.869e-6, 8.953e-5
0.277, 6.824e-6, 9.363e-5
0.271, 6.800e-6, 9.772e-5
0.265, 6.773e-6, 1.018e-4
0.259, 6.729e-6, 1.058e-4
0.253, 6.718e-6, 1.099e-4
0.247, 6.677e-6, 1.139e-4
0.241, 6.653e-6, 1.179e-4
0.235, 6.627e-6, 1.219e-4
0.229, 6.589e-6, 1.258e-4
0.223, 6.572e-6, 1.298e-4
0.217, 6.530e-6, 1.337e-4
0.211, 6.498e-6, 1.376e-4
0.205, 6.480e-6, 1.415e-4
0.199, 6.433e-6, 1.454e-4
0.193, 6.395e-6, 1.492e-4
0.187, 6.373e-6, 1.531e-4
0.181, 6.333e-6, 1.569e-4
0.175, 6.285e-6, 1.606e-4
0.169, 6.237e-6, 1.644e-4
0.163, 6.191e-6, 1.681e-4
0.157, 6.146e-6, 1.718e-4
0.151, 6.097e-6, 1.755e-4
0.145, 6.064e-6, 1.792e-4
0.139, 6.002e-6, 1.828e-4
0.133, 5.945e-6, 1.864e-4
0.127, 5.894e-6, 1.899e-4
0.121, 5.840e-6, 1.934e-4
0.115, 5.758e-6, 1.969e-4
0.109, 5.698e-6, 2.003e-4
0.103, 5.615e-6, 2.037e-4
0.097, 5.550e-6, 2.071e-4
0.091, 5.456e-6, 2.104e-4
0.085, 5.362e-6, 2.136e-4
0.079, 5.281e-6, 2.168e-4
0.073, 5.188e-6, 2.199e-4
0.067, 5.096e-6, 2.230e-4
0.061, 5.013e-6, 2.260e-4
0.055, 4.919e-6, 2.290e-4
0.049, 4.839e-6, 2.319e-4
0.043, 4.768e-6, 2.348e-4
0.037, 4.678e-6, 2.376e-4
0.031, 4.625e-6, 2.404e-4
0.025, 4.576e-6, 2.432e-4
0.019, 4.527e-6, 2.459e-4
0.013, 4.503e-6, 2.486e-4
0.007, 4.479e-6, 2.513e-4
0.001, 4.476e-6, 2.540e-4
-0.005, 4.453e-6, 2.567e-4
-0.011, 4.448e-6, 2.594e-4
-0.017, 4.443e-6, 2.620e-4
-0.023, 4.436e-6, 2.647e-4
-0.029, 4.436e-6, 2.674e-4
-0.035, 4.446e-6, 2.700e-4
-0.041, 4.456e-6, 2.727e-4
-0.047, 4.463e-6, 2.754e-4
-0.053, 4.476e-6, 2.780e-4
-0.059, 4.478e-6, 2.807e-4
-0.065, 4.479e-6, 2.834e-4
-0.071, 4.479e-6, 2.861e-4
-0.077, 4.487e-6, 2.888e-4
-0.083, 4.512e-6, 2.915e-4
-0.089, 4.525e-6, 2.942e-4
-0.095, 4.527e-6, 2.969e-4
-0.101, 4.528e-6, 2.996e-4
-0.107, 4.528e-6, 3.024e-4
-0.113, 4.530e-6, 3.051e-4
-0.119, 4.531e-6, 3.078e-4
-0.125, 4.531e-6, 3.105e-4
-0.131, 4.533e-6, 3.132e-4
-0.137, 4.537e-6, 3.160e-4
-0.143, 4.555e-6, 3.187e-4
-0.149, 4.565e-6, 3.214e-4
-0.155, 4.574e-6, 3.242e-4
-0.161, 4.576e-6, 3.269e-4
-0.167, 4.582e-6, 3.297e-4
-0.173, 4.606e-6, 3.324e-4
-0.179, 4.619e-6, 3.352e-4
-0.185, 4.625e-6, 3.380e-4
-0.191, 4.631e-6, 3.407e-4
-0.197, 4.653e-6, 3.435e-4
-0.203, 4.673e-6, 3.463e-4
-0.209, 4.680e-6, 3.491e-4
-0.215, 4.704e-6, 3.519e-4
-0.221, 4.722e-6, 3.548e-4
-0.227, 4.723e-6, 3.576e-4
-0.233, 4.724e-6, 3.604e-4
-0.239, 4.729e-6, 3.633e-4
-0.245, 4.737e-6, 3.661e-4
-0.251, 4.747e-6, 3.690e-4
-0.257, 4.762e-6, 3.718e-4
-0.263, 4.761e-6, 3.747e-4
-0.269, 4.758e-6, 3.775e-4
-0.275, 4.738e-6, 3.804e-4
-0.281, 4.729e-6, 3.832e-4
-0.287, 4.733e-6, 3.860e-4
-0.293, 4.742e-6, 3.889e-4
-0.299, 4.773e-6, 3.917e-4